 v (km/s)      332
       -900.543       -895.109       -889.676       -884.243       -878.809
       -873.375       -867.942       -862.508       -857.074       -851.640
       -846.206       -840.772       -835.337       -829.903       -824.469
       -819.034       -813.599       -808.164       -802.730       -797.295
       -791.859       -786.424       -780.989       -775.554       -770.118
       -764.683       -759.247       -753.811       -748.375       -742.939
       -737.503       -732.067       -726.631       -721.194       -715.758
       -710.321       -704.885       -699.448       -694.011       -688.574
       -683.137       -677.700       -672.263       -666.825       -661.388
       -655.950       -650.512       -645.075       -639.637       -634.199
       -628.761       -623.323       -617.884       -612.446       -607.008
       -601.569       -596.130       -590.692       -585.253       -579.814
       -574.375       -568.936       -563.496       -558.057       -552.618
       -547.178       -541.739       -536.299       -530.859       -525.419
       -519.979       -514.539       -509.099       -503.658       -498.218
       -492.777       -487.337       -481.896       -476.455       -471.014
       -465.573       -460.132       -454.691       -449.250       -443.808
       -438.367       -432.925       -427.483       -422.041       -416.600
       -411.158       -405.715       -400.273       -394.831       -389.389
       -383.946       -378.503       -373.061       -367.618       -362.175
       -356.732       -351.289       -345.846       -340.402       -334.959
       -329.516       -324.072       -318.628       -313.184       -307.741
       -302.297       -296.853       -291.408       -285.964       -280.520
       -275.075       -269.631       -264.186       -258.741       -253.296
       -247.851       -242.406       -236.961       -231.516       -226.070
       -220.625       -215.179       -209.734       -204.288       -198.842
       -193.396       -187.950       -182.504       -177.058       -171.611
       -166.165       -160.718       -155.271       -149.825       -144.378
       -138.931       -133.484       -128.037       -122.589       -117.142
       -111.695       -106.247       -100.799       -95.3517       -89.9038
       -84.4559       -79.0078       -73.5597       -68.1114       -62.6631
       -57.2146       -51.7661       -46.3175       -40.8687       -35.4199
       -29.9709       -24.5219       -19.0728       -13.6235       -8.17419
       -2.72475        2.72478        8.17441        13.6241        19.0740
        24.5239        29.9739        35.4241        40.8743        46.3246
        51.7750        57.2256        62.6762        68.1269        73.5777
        79.0286        84.4797        89.9308        95.3820        100.833
        106.285        111.736        117.188        122.640        128.091
        133.543        138.995        144.447        149.900        155.352
        160.804        166.257        171.709        177.162        182.615
        188.068        193.521        198.974        204.427        209.880
        215.334        220.787        226.241        231.695        237.148
        242.602        248.056        253.510        258.965        264.419
        269.873        275.328        280.782        286.237        291.692
        297.147        302.602        308.057        313.512        318.967
        324.423        329.878        335.334        340.789        346.245
        351.701        357.157        362.613        368.069        373.526
        378.982        384.438        389.895        395.352        400.808
        406.265        411.722        417.179        422.636        428.094
        433.551        439.009        444.466        449.924        455.382
        460.839        466.297        471.755        477.214        482.672
        488.130        493.589        499.047        504.506        509.965
        515.423        520.882        526.341        531.801        537.260
        542.719        548.179        553.638        559.098        564.558
        570.017        575.477        580.937        586.398        591.858
        597.318        602.779        608.239        613.700        619.161
        624.621        630.082        635.543        641.004        646.466
        651.927        657.388        662.850        668.312        673.773
        679.235        684.697        690.159        695.621        701.084
        706.546        712.008        717.471        722.933        728.396
        733.859        739.322        744.785        750.248        755.711
        761.175        766.638        772.102        777.565        783.029
        788.493        793.957        799.421        804.885        810.349
        815.813        821.278        826.742        832.207        837.672
        843.136        848.601        854.066        859.531        864.997
        870.462        875.927        881.393        886.858        892.324
        897.790        903.256
 g(v)      332
    2.08799e-10    7.68413e-09    6.70496e-08    1.44096e-06    3.37858e-06
    1.70420e-06    2.05095e-08    1.10879e-06    1.49303e-07    2.91504e-09
    1.79174e-05    0.000198949    0.000640735     0.00109093     0.00130505
     0.00131777     0.00127608     0.00127679     0.00136333     0.00155670
     0.00186695     0.00226333     0.00264846     0.00290490     0.00297589
     0.00290895     0.00282629     0.00283826     0.00297307     0.00318382
     0.00339050     0.00352475     0.00357677     0.00360420     0.00368724
     0.00387835     0.00417925     0.00452891     0.00481537     0.00493861
     0.00488238     0.00472861     0.00459828     0.00457103     0.00464999
     0.00479251     0.00496109     0.00513563     0.00528808     0.00537370
     0.00536420     0.00527703     0.00516580     0.00508490     0.00507236
     0.00515580     0.00536906     0.00573758     0.00623118     0.00671685
     0.00698233     0.00688590     0.00650351     0.00609815     0.00592014
     0.00602293     0.00627117     0.00648458     0.00656024     0.00650376
     0.00642856     0.00650430     0.00679640     0.00717226     0.00738541
     0.00729450     0.00700152     0.00673513     0.00664054     0.00669680
     0.00678246     0.00680317     0.00677697     0.00681036     0.00696389
     0.00719088     0.00740107     0.00752338     0.00753197     0.00746327
     0.00739756     0.00735694     0.00729644     0.00721266     0.00718257
     0.00720965     0.00716333     0.00696338     0.00671662     0.00661151
     0.00671485     0.00692163     0.00707696     0.00708389     0.00691730
     0.00661579     0.00630228     0.00613828     0.00621918     0.00652491
     0.00690936     0.00716545     0.00713983     0.00678985     0.00624808
     0.00577109     0.00552748     0.00551252     0.00564360     0.00582600
     0.00590574     0.00574233     0.00537643     0.00506580     0.00510561
     0.00556644     0.00613089     0.00624698     0.00563829     0.00460508
     0.00375797     0.00380661     0.00544093     0.00818633     0.00935090
     0.00670436     0.00238095    0.000252397    1.47448e-07     0.00225365
      0.0114672      0.0137381     0.00571164    1.73461e-06    3.74466e-07
    3.06116e-05     0.00152778     0.00614359     0.00874163     0.00666576
     0.00348369     0.00236261     0.00275574     0.00364522     0.00431009
     0.00416992     0.00329920     0.00232817     0.00171374     0.00153929
     0.00179442     0.00243398     0.00315607     0.00346715     0.00318964
     0.00260625     0.00209085     0.00179867     0.00170263     0.00171861
     0.00177106     0.00185313     0.00198082     0.00209799     0.00211377
     0.00201908     0.00189687     0.00184769     0.00192710     0.00212953
     0.00240262     0.00263308     0.00263147     0.00224002     0.00153063
    0.000817879    0.000364200    0.000182418    0.000126313    0.000205349
     0.00174725     0.00384454     0.00280434     0.00105689    0.000949765
     0.00141795     0.00188857     0.00216538     0.00191952     0.00123798
    0.000585737    0.000222112    8.00881e-05    3.44556e-05    2.41109e-05
    3.32138e-05    7.29404e-05    0.000177457    0.000386836    0.000699471
     0.00105055     0.00136583     0.00159904     0.00173883     0.00180085
     0.00181745     0.00182777     0.00184993     0.00186535     0.00184861
     0.00180924     0.00175494     0.00165418     0.00149505     0.00131727
     0.00116763     0.00107357     0.00105398     0.00112426     0.00128484
     0.00149111     0.00164117     0.00164131     0.00147548     0.00120583
    0.000938834    0.000772257    0.000767493    0.000955566     0.00133416
     0.00180677     0.00217482     0.00224171     0.00197412     0.00155585
     0.00123140     0.00110259     0.00114790     0.00135741     0.00169757
     0.00195436     0.00188111     0.00155496     0.00124518     0.00108144
     0.00104404     0.00108647     0.00113450     0.00109894    0.000976011
    0.000834978    0.000735381    0.000718668    0.000831863     0.00106944
     0.00132150     0.00144960     0.00139739     0.00120157    0.000975829
    0.000865224    0.000926112     0.00111270     0.00131495     0.00142770
     0.00137328     0.00116550    0.000937656    0.000810013    0.000792427
    0.000832734    0.000883049    0.000909508    0.000909965    0.000921404
    0.000988783     0.00114313     0.00139933     0.00171066     0.00190896
     0.00181174     0.00142752    0.000967317    0.000622257    0.000436983
    0.000379771    0.000410298    0.000506682    0.000663541    0.000865186
     0.00104255     0.00110049     0.00100441    0.000813561    0.000626193
    0.000521870    0.000540516    0.000692547    0.000985055     0.00140704
     0.00186205     0.00217185     0.00216223     0.00175486     0.00113738
    0.000650604    0.000423734    0.000405023    0.000571108     0.00101303
     0.00174824     0.00213365     0.00143215    0.000318188    2.32536e-06
    1.38752e-06    1.80474e-05    8.38891e-06    1.31647e-05    1.31255e-05
    4.08580e-06      0.0151314
